0       !bFault_stitched_D2.4_Char 3/25/2008 rev of merge of ells and hanks 
  24.60  50.00 0.050   !stitched faults such as Death Valley
 -125.00 -100.00 0.050   !remove antelope and carson range, KH feb 9 2007
760. 2.0        ! vs30 and dbasin
1. 200.
5        5 spectral periods
0. 1. 0. PGA
0.375 0.210 0.245
0.230 0.225 0.23
0.400 0.360 0.31
NGA/bFault_stitched_D2.4_Char.pga
19
.005 .007 .0098 .0137 .0192 .0269 .0376 .0527 .0738 .103 .145 .203 .284 .397 .556 .778 1.09 1.52 2.13 
3
13 0.3333  1000. 0.25  0 Boore and Atkinson Apr 07
14 0.3333  1000. 0.25  0 CB
15 0.3333  1000. 0.25  0 CY
1.0 1. 0. 1.0-s sa
0.375 0.210 0.245
0.230 0.225 0.23
0.400 0.360 0.31
NGA/bFault_stitched_D2.4_Char.1hz
20
.0025 .00375 .00563 .00844 .0127 .0190 .0285 .0427 .0641 .0961 .144 .216 .324 .487 .730 1.09 1.64 2.46 3.69 5.54
3
13 0.3333  1000. 0.25  0 Boore and Atkinsn Apr 07
14 0.3333  1000. 0.25  0 CB
15 0.3333  1000. 0.25  0 CY
0.2 1. 0.  5hz PSA
0.375 0.210 0.245
0.230 0.225 0.23
0.400 0.360 0.31
NGA/bFault_stitched_D2.4_Char.5hz
19                        
.005 .0075 0.0113 .0169 .0253 .0380 .0570 .0854 .128 .192 .288 .432 .649 .973 1.46 2.19 3.28 4.92 7.38 
3
13 0.3333  1000. 0.25  0 Boore and Atkinsn Apr 07
14 0.3333  1000. 0.25  0 CB
15 0.3333  1000. 0.25  0 CY
0.5 1. 0.  PSA
0.375 0.210 0.245
0.230 0.225 0.23
0.400 0.360 0.31
NGA/bFault_stitched_D2.4_Char.2hz
20
.0025 .005 .0075 0.0113 .0169 .0253 .0380 .0570 .0854 .128 .192 .288 .432 .649 .973 1.46 2.19 3.28 4.92 7.38 
 3
13 0.3333  1000. 0.25  0 Boore and Atkinsn Apr 07
14 0.3333  1000. 0.25  0 CB
15 0.3333  1000. 0.25  0 CY
2.0 1. 0.  PSA
0.375 0.210 0.245
0.230 0.225 0.23
0.400 0.360 0.31
NGA/bFault_stitched_D2.4_Char.2sc
20
.0025 .006 .0098 .0137 .0192 .0269 .0376 .0527 .0738 .103 .145 .203 .284 .397 .556 .778 1.09 1.52 2.13 3.3
3
13 0.3333  1000. 0.25  0 Boore and Atkinsn Apr 07
14 0.3334  1000. 0.25  0 CB
15 0.3333  1000. 0.25  0 CY
1. 1.
1
0
1
.12 5
  1  2  2  Mount Diablo Thrust                   combined w/merge2.f
 6.700 0.13946E-02 0.5000
 6.500 0.27825E-02 0.5000
   38.0    13.00   8.0       25.0
   2
   37.73010 -121.82290
   37.87710 -122.03880
  1  2  2  Monte Vista-Shannon                               
 6.500 0.38211E-03 0.5000
 6.300 0.76241E-03 0.5000
   45.0     5.00   0.0       45.0
   5
   37.43750 -122.25001
   37.30500 -122.06500
   37.26500 -122.00001
   37.22750 -121.92750
   37.21000 -121.83750
  1  1  2  Ortigalita                                        
 7.100 0.41561E-03 0.5000
 6.900 0.82925E-03 0.5000
   90.0    11.00   0.0       70.0
   7
   37.27054 -121.28059
   37.19204 -121.22482
   37.11761 -121.15121
   37.03807 -121.12592
   36.90705 -121.01141
   36.79396 -120.90358
   36.73216 -120.89540
  1  1  2  Rinconada                                         
 7.500 0.25816E-03 0.5000
 7.400 0.36465E-03 0.5000
   90.0    10.00   0.0      191.0
   7
   36.67524 -121.75650
   36.45199 -121.46286
   35.61091 -120.70242
   35.44550 -120.66200
   35.40220 -120.61500
   35.35300 -120.58300
   35.31120 -120.51700
  1  1  2  Monterey Bay-Tularcitos                           
 7.300 0.15771E-03 0.5000
 7.200 0.22277E-03 0.5000
   90.0    14.00   0.0       83.0
   7
   36.36826 -121.52527
   36.40017 -121.59573
   36.43872 -121.64890
   36.46929 -121.73531
   36.58495 -121.86559
   36.81360 -122.01049
   36.92128 -122.12216
  1  1  2  Honey Lake                                        
 7.000 0.12019E-02 0.5000
 6.800 0.23981E-02 0.5000
   90.0    11.00   0.0       57.0
   9
   39.99474 -120.03810
   40.01783 -120.07342
   40.06285 -120.13900
   40.14132 -120.23990
   40.18248 -120.30043
   40.21979 -120.40805
   40.22939 -120.43664
   40.28275 -120.47952
   40.32132 -120.54847
  1  2  2  Table Bluff                                       
 7.200 0.20548E-03 0.5000
 7.000 0.40998E-03 0.5000
   45.0    18.00   0.0       49.0
   4
   40.64778 -124.17976
   40.69600 -124.28200
   40.69800 -124.47499
   40.82800 -124.67900
  1  2  2  Big Lagoon-Bald Mtn                               
 7.500 0.13815E-03 0.5000
 7.500 0.13815E-03 0.5000
   35.0    23.00   0.0       90.0
   7
   41.03298 -123.93412
   41.10547 -123.99326
   41.16545 -124.09451
   41.52538 -124.31129
   41.57700 -124.37600
   41.66206 -124.43228
   41.72955 -124.44366
  1  2  2  Trinidad                                          
 7.500 0.18976E-03 0.5000
 7.500 0.18976E-03 0.5000
   35.0    23.00   0.0       88.0
   9
   40.79000 -123.84100
   40.85426 -123.92214
   40.93652 -123.99940
   40.98206 -124.02867
   41.04041 -124.11172
   41.18733 -124.25066
   41.24423 -124.31860
   41.29700 -124.34300
   41.44900 -124.39400
  1  2  2  Fickle Hill                                       
 7.100 0.23531E-03 0.5000
 6.900 0.46951E-03 0.5000
   35.0    23.00   0.0       32.0
   4
   40.74394 -123.96461
   40.78458 -123.98963
   40.85789 -124.04704
   40.97865 -124.18397
  1  2  2  McKinleyville                                     
 7.200 0.24554E-03 0.5000
 7.100 0.34684E-03 0.5000
   35.0    23.00   0.0       47.0
   8
   40.75712 -123.86379
   40.79176 -123.90343
   40.81747 -123.94196
   40.85803 -123.99852
   40.90951 -124.05132
   40.96202 -124.09076
   41.05808 -124.18308
   41.06589 -124.23273
  1  2  2  Mad River                                         
 7.200 0.25180E-03 0.5000
 7.000 0.50240E-03 0.5000
   35.0    23.00   0.0       42.0
   7
   40.74703 -123.92455
   40.80849 -123.95905
   40.83718 -123.99632
   40.89953 -124.06962
   40.93317 -124.11170
   40.98371 -124.14874
   41.03210 -124.23320
  1  1  2  Collayomi                                         
 6.700 0.36657E-03 0.5000
 6.400 0.10331E-02 0.5000
   90.0    10.00   0.0       28.0
   2
   38.77886 -122.68166
   38.99303 -122.86272
  1  1  2  Bartlett Springs                                  
 7.300 0.21144E-02 0.5000
 7.200 0.29867E-02 0.5000
   90.0     8.00   3.8      174.0
   9
   38.93338 -122.50408
   39.56600 -123.05210
   39.57520 -123.03970
   39.71930 -123.18660
   39.82440 -123.29300
   39.96170 -123.39560
   40.00630 -123.41710
   40.14380 -123.43990
   40.26490 -123.50330
  1  1  2  Hosgri                                            
 7.300 0.79800E-03 0.5000
 7.200 0.11272E-02 0.5000
   80.0     7.00   0.0      171.0
  25
   34.85480 -120.74600
   34.89310 -120.76600
   34.93400 -120.79500
   34.97540 -120.80500
   35.04690 -120.83400
   35.10850 -120.86600
   35.14290 -120.87900
   35.19190 -120.91600
   35.27120 -120.96000
   35.35470 -121.00200
   35.42140 -121.04600
   35.45420 -121.06400
   35.50200 -121.09100
   35.60270 -121.15800
   35.65230 -121.19400
   35.70050 -121.24100
   35.74370 -121.28600
   35.76850 -121.31900
   35.79170 -121.36500
   35.83560 -121.41800
   35.86230 -121.45300
   35.89460 -121.49400
   35.92870 -121.51700
   35.96800 -121.56100
   36.14620 -121.72700
  1  1  2  San Juan                                          
 7.100 0.47422E-03 0.5000
 7.000 0.66985E-03 0.5000
   90.0    13.00   0.0       68.0
   5
   35.67970 -120.29537
   35.50193 -120.22916
   35.30454 -120.12495
   35.28247 -120.08205
   35.14761 -119.96066
  1  3  2  Gillem-Big Crack                                  
 6.800 0.62673E-03 0.5000
 6.600 0.12505E-02 0.5000
   60.0    13.00   0.0       32.0
   4
   41.68326 -121.58840
   41.74523 -121.55521
   41.77399 -121.57070
   41.96874 -121.57070
  1  3  2  Cedar Mtn-Mahogany Mtn                            
 7.100 0.45950E-03 0.5000
 7.000 0.64906E-03 0.5000
   60.0    11.00   0.0       78.0
   4
   41.52567 -121.90136
   41.81986 -121.94468
   41.94527 -121.96301
   42.19857 -122.11630
  1  1  2  Likely                                            
 7.000 0.16066E-03 0.5000
 6.900 0.22693E-03 0.5000
   90.0    11.00   0.0       64.0
   4
   40.89100 -120.24510
   40.94190 -120.32034
   41.10124 -120.47083
   41.33582 -120.72754
  1  3  2  Surprise Valley                                   
 7.200 0.54241E-03 0.5000
 7.100 0.76617E-03 0.5000
   50.0    13.00   0.0       87.0
   7
   41.13222 -119.99061
   41.28270 -120.10568
   41.50401 -120.18092
   41.58146 -120.18314
   41.61245 -120.20747
   41.68990 -120.21633
   41.87358 -120.13888
  1  3  2  Hat Creek-McArthur-Mayfield                       
 7.200 0.61299E-03 0.5000
 7.100 0.86587E-03 0.5000
   60.0    11.00   0.0       97.0
   4
   41.45107 -121.63309
   41.10836 -121.43314
   40.93453 -121.43980
   40.61665 -121.37315
  1  3  2  Robinson Creek                                    
 6.700 0.30348E-03 0.5000
 6.400 0.85534E-03 0.5000
   50.0    17.00   0.0       17.0
   4
   38.20659 -119.31708
   38.23859 -119.30286
   38.26348 -119.30463
   38.33460 -119.23174
  1  3  2  Mono Lake                                         
 6.800 0.16554E-02 0.5000
 6.600 0.33030E-02 0.5000
   50.0    17.00   0.0       26.0
   5
   37.93457 -119.10373
   38.02702 -119.17307
   38.06258 -119.18197
   38.10169 -119.18019
   38.14970 -119.18908
  1  3  2  Hartley Springs                                   
 6.800 0.31775E-03 0.5000
 6.600 0.63399E-03 0.5000
   50.0    17.00   0.0       25.0
   4
   37.63944 -118.99706
   37.69811 -118.99706
   37.75678 -119.02551
   37.84923 -119.07529
  1  3  2  Hilton Creek                                      
 6.900 0.13365E-02 0.5000
 6.700 0.26668E-02 0.5000
   50.0    17.00   0.0       29.0
   5
   37.46165 -118.72861
   37.49009 -118.75348
   37.61988 -118.80860
   37.65366 -118.85661
   37.68922 -118.88328
  1  3  2  Round Valley                                      
 7.100 0.39580E-03 0.5000
 6.900 0.78973E-03 0.5000
   50.0    17.00   0.0       43.0
  19
   37.24244 -118.59922
   37.25132 -118.61618
   37.26467 -118.63512
   37.27861 -118.64111
   37.30151 -118.63881
   37.32666 -118.62761
   37.34512 -118.61513
   37.35740 -118.61499
   37.38248 -118.62971
   37.39753 -118.64251
   37.40476 -118.65061
   37.41369 -118.65119
   37.44611 -118.63719
   37.48127 -118.64157
   37.51517 -118.65043
   37.52474 -118.67178
   37.53973 -118.70231
   37.54858 -118.73086
   37.56028 -118.74232
  1  3  2  Fish Slough                                       
 6.800 0.13382E-03 0.5000
 6.600 0.26701E-03 0.5000
   50.0    17.00   0.0       26.0
  12
   37.36130 -118.39010
   37.39697 -118.39195
   37.43448 -118.40491
   37.45972 -118.39834
   37.47821 -118.39983
   37.49788 -118.40057
   37.51686 -118.39935
   37.52587 -118.39218
   37.54058 -118.39542
   37.55768 -118.40700
   37.56883 -118.40652
   37.58612 -118.39388
  1  1  2  White Mountains                                   
 7.400 0.27493E-03 0.5000
 7.300 0.38835E-03 0.5000
   90.0    13.00   0.0      111.0
  20
   37.02209 -118.16626
   37.03976 -118.16659
   37.06858 -118.18756
   37.17188 -118.22367
   37.24149 -118.25827
   37.30249 -118.27922
   37.33345 -118.29301
   37.37849 -118.30515
   37.43014 -118.31811
   37.48475 -118.33015
   37.52754 -118.33570
   37.57550 -118.34866
   37.66848 -118.36718
   37.73563 -118.37551
   37.78391 -118.41131
   37.83149 -118.42905
   37.86992 -118.41348
   37.90091 -118.38570
   37.94297 -118.34589
   37.96437 -118.33755
  1  1  2  Owl Lake                                          
 6.700 0.12970E-02 0.5000
 6.500 0.25878E-02 0.5000
   90.0    12.00   0.0       25.0
   2
   35.60639 -116.87723
   35.72774 -116.64142
  1  3  2  Deep Springs                                      
 6.800 0.52214E-03 0.5000
 6.600 0.10418E-02 0.5000
   50.0    17.00   0.0       25.0
   9
   37.43485 -117.94248
   37.39684 -117.95624
   37.38197 -117.95898
   37.36665 -117.97384
   37.34915 -117.98705
   37.32071 -117.99695
   37.28657 -118.01456
   37.25507 -118.03271
   37.23056 -118.05967
  1  2  2  Point Reyes                                       
 6.900 0.17966E-03 0.5000
 6.700 0.35847E-03 0.5000
   50.0    12.00   0.0       47.0
   3
   37.94333 -122.83367
   37.99077 -123.06635
   38.18426 -123.24097
  1  1  2  Zayante-Vergeles                                  
 7.000 0.52842E-04 0.5000
 6.900 0.74641E-04 0.5000
   90.0    12.00   0.0       58.0
   4
   36.79268 -121.46381
   36.81287 -121.60956
   36.93775 -121.74194
   37.08872 -121.97340
  1  1  2  Quien Sabe                                        
 6.600 0.69209E-03 0.5000
 6.300 0.19506E-02 0.5000
   90.0    10.00   0.0       23.0
   2
   36.75898 -121.21391
   36.92562 -121.36441
  1  2  2  Pleito                                            
 7.100 0.88761E-03 0.5000
 7.000 0.12538E-02 0.5000
   46.0    19.00   0.0       44.0
  15
   34.94152 -119.29590
   34.95623 -119.23706
   34.95564 -119.20621
   34.98694 -119.12816
   35.00708 -119.08091
   35.00748 -119.05054
   34.99168 -119.03607
   34.97825 -119.01293
   34.96837 -118.99413
   34.94387 -118.97945
   34.93505 -118.96870
   34.93152 -118.94860
   34.93270 -118.92780
   34.93914 -118.91073
   34.93505 -118.87900
  1  3  2  So Sierra Nevada                                  
 7.500 0.27013E-04 0.5000
 7.500 0.27013E-04 0.5000
   50.0    18.00   0.0      112.0
  13
   35.29430 -118.02300
   35.34700 -118.04000
   35.42610 -118.05100
   35.53840 -118.03400
   35.56800 -118.00400
   35.61000 -117.90900
   35.68390 -117.86900
   35.75829 -117.89597
   35.93410 -117.91198
   35.97259 -117.94594
   36.08000 -117.98500
   36.12400 -118.00900
   36.21930 -117.99000
  1  1  2  Owens Valley                                      
 7.300 0.46856E-03 0.5000
 7.200 0.66186E-03 0.5000
   90.0    14.00   0.0       86.0
   8
   36.50470 -118.02000
   36.55220 -118.04300
   36.63550 -118.07000
   36.69430 -118.08300
   36.77390 -118.11900
   36.85060 -118.16000
   36.93150 -118.19700
   37.23400 -118.32900
  1  3  2  Independence                                      
 7.200 0.70453E-04 0.5000
 7.000 0.14057E-03 0.5000
   50.0    19.00   0.0       48.0
   7
   36.50150 -118.09200
   36.55860 -118.16800
   36.62390 -118.22400
   36.66340 -118.23400
   36.77350 -118.30200
   36.82870 -118.32000
   36.88020 -118.30400
  1  3  2  Birch Creek                                       
 6.600 0.55727E-03 0.5000
 6.400 0.11119E-02 0.5000
   50.0    17.00   0.0       15.0
   5
   36.97624 -118.33651
   37.00376 -118.34528
   37.03629 -118.36655
   37.07131 -118.40533
   37.09883 -118.40408
  1  1  2  West Napa                                         
 6.700 0.63412E-03 0.5000
 6.500 0.12652E-02 0.5000
   90.0    10.00   0.0       30.0
   3
   38.16441 -122.24451
   38.23397 -122.28896
   38.41158 -122.36856
  1  1  2  Hunting Creek-Berryessa                           
 7.100 0.23137E-02 0.5000
 6.900 0.46164E-02 0.5000
   90.0    12.00   0.0       60.0
   2
   38.45300 -122.19700
   38.93338 -122.50408
  1  3  2  Battle Creek                                      
 6.700 0.35454E-03 0.5000
 6.500 0.70740E-03 0.5000
   75.0    11.00   0.0       29.0
   2
   40.40409 -122.18365
   40.47029 -121.85155
  1  2  2  Los Osos                                          
 7.000 0.23891E-03 0.5000
 6.800 0.47668E-03 0.5000
   45.0    14.00   0.0       44.0
   8
   35.30209 -120.86641
   35.29963 -120.78181
   35.28492 -120.73522
   35.24569 -120.68373
   35.20891 -120.65430
   35.16967 -120.53171
   35.12554 -120.48144
   35.12186 -120.45692
  1  2  2  San Luis Range (So Margin)                        
 7.200 0.68772E-04 0.5000
 7.000 0.13722E-03 0.5000
   45.0    14.00   0.0       64.0
   8
   34.84968 -120.23746
   34.86439 -120.26933
   34.91098 -120.30979
   34.97596 -120.41399
   35.10837 -120.56358
   35.14148 -120.64449
   35.16845 -120.71314
   35.18193 -120.78795
  1  2  2  Lions Head                                        
 6.800 0.13003E-04 0.5000
 6.600 0.25945E-04 0.5000
   75.0    10.00   0.0       41.0
   6
   34.69765 -120.23500
   34.71236 -120.33431
   34.71604 -120.40665
   34.72953 -120.44097
   34.84232 -120.55623
   34.86807 -120.61017
  1  2  2  Mission Ridge-Arroyo Parida-Santa Ana             
 6.900 0.23937E-03 0.5000
 6.700 0.47761E-03 0.5000
   70.0     8.00   0.0       69.0
  15
   34.42981 -119.89769
   34.42478 -119.86875
   34.43359 -119.80713
   34.43359 -119.78575
   34.44113 -119.75055
   34.44239 -119.74300
   34.44994 -119.69144
   34.44113 -119.61095
   34.43107 -119.51036
   34.42730 -119.47137
   34.41598 -119.42610
   34.42353 -119.34562
   34.42981 -119.28778
   34.44994 -119.20226
   34.47005 -119.16579
  1  2  2  San Cayetano                                      
 7.200 0.22998E-02 0.5000
 7.100 0.32486E-02 0.5000
   42.0    24.00   0.0       42.0
  13
   34.43610 -118.76200
   34.40470 -118.83100
   34.40210 -118.86500
   34.41725 -118.91304
   34.42704 -118.92385
   34.44946 -118.92792
   34.44841 -118.94363
   34.42210 -118.97685
   34.42178 -119.00752
   34.42294 -119.03671
   34.43573 -119.08182
   34.43289 -119.10376
   34.44997 -119.15906
  1  1  2  Cleghorn                                          
 6.800 0.17849E-02 0.5000
 6.600 0.35613E-02 0.5000
   90.0    16.00   0.0       25.0
   6
   34.31127 -117.46439
   34.28579 -117.38795
   34.29428 -117.34550
   34.27730 -117.31718
   34.27447 -117.25774
   34.28296 -117.20396
  1  2  2  North Frontal  (West)                             
 7.200 0.39779E-03 0.5000
 7.100 0.56189E-03 0.5000
   49.0    21.00   0.0       50.0
  13
   34.31693 -117.26906
   34.34524 -117.22661
   34.37072 -117.22376
   34.37072 -117.20113
   34.40468 -117.20113
   34.43865 -117.16715
   34.44431 -117.14451
   34.44148 -117.10770
   34.42167 -117.05958
   34.39619 -117.00297
   34.38204 -116.98882
   34.36505 -116.93785
   34.37072 -116.85011
  1  2  2  North Frontal  (East)                             
 7.000 0.25795E-03 0.5000
 6.800 0.51469E-03 0.5000
   41.0    25.00   0.0       27.0
   9
   34.33690 -116.79988
   34.33338 -116.74353
   34.34571 -116.71008
   34.33162 -116.66958
   34.34042 -116.64316
   34.33338 -116.62204
   34.32105 -116.58857
   34.31929 -116.53925
   34.31049 -116.52517
  1  1  2  Helendale-So Lockhart                             
 7.400 0.16735E-03 0.5000
 7.300 0.23639E-03 0.5000
   90.0    13.00   0.0      114.0
   9
   34.32480 -116.81500
   34.37570 -116.85700
   34.44100 -116.94500
   34.53940 -117.06400
   34.60380 -117.10600
   34.78680 -117.32800
   34.91560 -117.41800
   35.04280 -117.49700
   35.10870 -117.59700
  1  1  2  Lenwood-Lockhart-Old Woman Springs                
 7.500 0.23333E-03 0.5000
 7.400 0.32958E-03 0.5000
   90.0    13.00   0.0      145.0
   9
   34.34980 -116.64300
   34.46310 -116.69600
   34.55270 -116.76700
   34.64510 -116.84200
   34.75040 -116.92600
   34.87150 -117.08500
   34.95360 -117.24800
   35.05230 -117.47400
   35.21550 -117.77600
  1  1  2  Gravel Hills-Harper Lk                            
 7.100 0.27979E-03 0.5000
 6.900 0.55826E-03 0.5000
   90.0    11.00   0.0       65.0
   5
   34.87243 -116.91851
   34.88799 -116.96001
   34.94894 -117.01707
   35.17459 -117.33739
   35.25629 -117.45410
  1  1  2  Blackwater                                        
 7.100 0.19394E-03 0.5000
 6.900 0.38696E-03 0.5000
   90.0    12.00   0.0       60.0
   5
   35.01430 -117.03700
   35.10580 -117.12800
   35.22740 -117.21400
   35.36630 -117.31300
   35.44940 -117.41300
  1  1  2  Calico-Hidalgo                                    
 7.400 0.55887E-03 0.5000
 7.400 0.55887E-03 0.5000
   90.0    14.00   0.0      117.0
  13
   34.17260 -116.15300
   34.28720 -116.22200
   34.36100 -116.26400
   34.47680 -116.34200
   34.58470 -116.45800
   34.63530 -116.49500
   34.67440 -116.52900
   34.71910 -116.56100
   34.75240 -116.59600
   34.85680 -116.68900
   34.92420 -116.79500
   34.93880 -116.83700
   34.98890 -116.92200
  1  1  2  Pisgah-Bullion Mtn-Mesquite Lk                    
 7.300 0.25030E-03 0.5000
 7.200 0.35356E-03 0.5000
   90.0    13.00   0.0       88.0
  12
   34.13712 -116.00425
   34.15398 -116.02888
   34.20586 -116.06131
   34.29145 -116.12356
   34.39130 -116.17543
   34.47041 -116.25195
   34.47948 -116.25713
   34.49116 -116.25713
   34.56248 -116.33364
   34.63381 -116.37643
   34.69735 -116.40627
   34.81796 -116.48537
  1  1  2  So Emerson-Copper Mtn                             
 7.100 0.24625E-03 0.5000
